File: convert_PP0_to_alpha-s/carbon/OGB_Ar_77K_reference_data.txt
# graphite (OGB),  Ar, 77 K, data, t
# K. Miura et al., Adsorption (2007) 13: 139-147.: DOI 10.1007/s10450-007-9015-7
# Vm=V(theta=1) = 1.06 [cm3/g], C-value = 443, S = 3.91 [m2/g]
# V(alpha-s=1) = V(P/P0=0.4) = V0.4 = 2.076642 [cm3/g]
# S(alpha-s)[m2/g] = slope[cm3(STP)/g] * 3.91/2.076642 = slope[cm3(STP)/g] * 1.882847
# relative_pressure_X, V[cm3(STP)/g], theta, alpha-s, t[nm]
2.07E-03, 0.6526, 0.6157, 0.314257, 0.2068752
7.56E-03, 0.8584, 0.8098, 0.41336, 0.2720928
1.71E-02, 0.9288, 0.8762, 0.447261, 0.2944032
2.81E-02, 0.9708, 0.9158, 0.467485, 0.3077088
4.70E-02, 1.0471, 0.9878, 0.504227, 0.3319008
6.65E-02, 1.0949, 1.0329, 0.527245, 0.3470544
8.21E-02, 1.1244, 1.0608, 0.541451, 0.3564288
9.73E-02, 1.1532, 1.0879, 0.55532, 0.3655344
1.27E-01, 1.1923, 1.1248, 0.574148, 0.3779328
1.52E-01, 1.2328, 1.163, 0.593651, 0.390768
0.1821, 1.275, 1.2028, 0.613972, 0.4041408
0.2212, 1.3369, 1.2612, 0.64378, 0.4237632
0.2702, 1.4319, 1.3508, 0.689527, 0.4538688
0.301, 1.5104, 1.4249, 0.727328, 0.4787664
0.3456, 1.7292, 1.6313, 0.83269, 0.5481168
0.3675, 1.8922, 1.7851, 0.911183, 0.5997936
0.4029, 2.0931, 1.9746, 1.00793, 0.6634656
0.4495, 2.2415, 2.1146, 1.07939, 0.7105056
0.5004, 2.3767, 2.2422, 1.14449, 0.7533792
0.5538, 2.5404, 2.3966, 1.22332, 0.8052576
0.599, 2.7183, 2.5644, 1.30899, 0.8616384
0.6554, 3.0923, 2.9173, 1.48909, 0.9802128
0.7076, 3.4078, 3.2149, 1.64101, 1.08021
0.7579, 3.7164, 3.506, 1.78962, 1.178016
0.8059, 4.0776, 3.8468, 1.96355, 1.29252
0.8462, 4.7716, 4.5015, 2.29775, 1.512504
0.5415, 2.9631, 2.2793, 1.42687, 0.7658448
0.562, 3.0482, 2.3448, 1.46785, 0.7878528
0.5867, 3.1431, 2.4176, 1.51355, 0.8123136
0.6115, 3.2592, 2.5071, 1.56946, 0.8423856
0.6413, 3.4144, 2.6265, 1.64419, 0.882504
0.6668, 3.5601, 2.7385, 1.71435, 0.920136
0.6913, 3.7152, 2.8578, 1.78904, 0.9602208
0.7161, 3.8901, 2.9924, 1.87326, 1.00545
0.7408, 4.0774, 3.1365, 1.96346, 1.053864
0.7654, 4.2899, 3.2999, 2.06579, 1.10877
0.7899, 4.5215, 3.4781, 2.17731, 1.16864
0.8143, 4.7913, 3.6856, 2.30723, 1.23836
0.8423, 5.1818, 3.986, 2.49528, 1.339296
0.8627, 5.5536, 4.272, 2.67432, 1.435392
0.9009, 6.5602, 5.0463, 3.15904, 1.69556
0.9468, 9.2519, 7.1168, 4.45522, 2.39124
0.9537, 10.121, 7.7854, 4.87373, 2.61589
0.9384, 15.017, 5.3064, 7.23139, 1.78295
0.9551, 17.859, 6.3106, 8.59994, 2.12036